File: module_examples/HW/HW3/xrd_csv_files/co3o4_xrd_co_source.txt
x	y_obs
16	1163
16.289	1085
16.578	1089
16.867	1119
17.156	1070
17.445	1079
17.734	1080
18.023	1137
18.312	1117
18.601	1076
18.89	1138
19.179	1175
19.468	1090
19.757	1105
20.046	1410
20.335	1127
20.624	1120
20.913	1130
21.202	1142
21.491	1168
21.78	1211
22.069	2488
22.358	1185
22.647	1200
22.936	1185
23.225	1177
23.514	1154
23.803	1140
24.092	1136
24.381	1147
24.67	1171
24.959	1152
25.248	1180
25.537	1179
25.826	1177
26.115	1159
26.404	1173
26.693	1213
26.982	1149
27.271	1148
27.56	1167
27.849	1147
28.138	1140
28.427	1184
28.716	1098
29.005	1152
29.294	1147
29.583	1108
29.872	1150
30.161	1143
30.45	1202
30.739	1167
31.028	1185
31.317	1137
31.606	1202
31.895	1126
32.184	1167
32.473	1130
32.762	1311
33.051	1402
33.34	1215
33.629	1141
33.918	1101
34.207	1148
34.496	1176
34.785	1141
35.074	1207
35.363	1115
35.652	1079
35.941	1146
36.23	1303
36.519	3116
36.808	1209
37.097	1145
37.386	1160
37.675	1157
37.964	1099
38.253	1297
38.542	1731
38.831	3959
39.12	1329
39.409	1247
39.698	1186
39.987	1197
40.276	1118
40.565	1279
40.854	1130
41.143	1173
41.432	1118
41.721	1195
42.01	1202
42.299	1375
42.588	4511
42.877	2978
43.166	4922
43.455	1258
43.744	1171
44.033	1199
44.322	1316
44.611	3065
44.9	1456
45.189	1461
45.478	1193
45.767	1170
46.056	1152
46.345	1119
46.634	1120
46.923	1163
47.212	1621
47.501	1229
47.79	1139
48.079	1101
48.368	1064
48.657	1141
48.946	1195
49.235	1325
49.524	4233
49.813	1900
50.102	1187
50.391	1135
50.68	1095
50.969	1119
51.258	1086
51.547	1075
51.836	1103
52.125	1205
52.414	1794
52.703	1672
52.992	1161
53.281	1118
53.57	1107
53.859	1163
54.148	1122
54.437	1098
54.726	1105
55.015	1147
55.304	1147
55.593	1171
55.882	1101
56.171	1135
56.46	1131
56.749	1056
57.038	1079
57.327	1061
57.616	1087
57.905	1119
58.194	1144
58.483	1090
58.772	1283
59.061	1142
59.35	1090
59.639	1072
59.928	1071
60.217	1108
60.506	1079
60.795	1106
61.084	1092
61.373	1079
61.662	1098
61.951	1041
62.24	1112
62.529	1258
62.818	1648
63.107	1251
63.396	1152
63.685	1140
63.974	1070
64.263	1027
64.552	1138
64.841	1302
65.13	1708
65.419	1200
65.708	1503
65.997	1150
66.286	1077
66.575	1095
66.864	1089
67.153	1122
67.442	1089
67.731	1098
68.02	1122
68.309	1141
68.598	1158
68.887	1368
69.176	1726
69.465	1175
69.754	1197
70.043	2015
70.332	2233
70.621	1254
70.91	1174
71.199	1096
71.488	1108
71.777	1043
72.066	1100
72.355	1145
72.644	1772
72.933	2311
73.222	1166
73.511	1094
73.8	1079
74.089	1087
74.378	1081
74.667	1071
74.956	1078
75.245	1074
75.534	1067
75.823	1040
76.112	1038
76.401	1074
76.69	1093
76.979	1143
77.268	1495
77.557	2592
77.846	1517
78.135	1318
78.424	1142
78.713	1119
79.002	1044
79.291	1075
79.58	1061
79.869	1025
80.158	1072
80.447	1053
80.736	1088
81.025	1057
81.314	1062
81.603	1110
81.892	1155
82.181	1220
82.47	1219
82.759	1093
83.048	1136
83.337	1120
83.626	1090
83.915	1096
84.204	1110
84.493	1027
84.782	1130
85.071	1054
85.36	1074
85.649	1055
85.938	1093
86.227	1057
86.516	1069
86.805	1044
87.094	1081
87.383	1077
87.672	1084
87.961	1250
88.25	1643
88.539	1271
88.828	1190
89.117	1144
89.406	1080
89.695	1066
89.984	1075
90.273	1065
90.562	1034
90.851	1041
91.14	1061
91.429	1094
91.718	1097
92.007	1073
92.296	1114
92.585	1105
92.874	1338
93.163	1698
93.452	1433
93.741	1137
94.03	1109
94.319	1185
94.608	1160
94.897	1111
95.186	1050
95.475	1060
95.764	1046
96.053	1057
96.342	1033
96.631	1072
96.92	1092
97.209	1064
97.498	1071
97.787	1092
98.076	1067
98.365	1061
98.654	1081
98.943	1130
99.232	1088
99.521	1060
99.81	1085
99.963	1193