File: module_examples/HW/HW3/xrd_csv_files/co3o4_RT_neutron.txt
x	y_obs
3.19	44030
3.69	44414
4.19	43609
4.69	53767
5.19	70465
5.69	83996
6.19	85849
6.69	82447
7.19	77736
7.69	73128
8.19	68607
8.69	63946
9.19	58614
9.69	54746
10.19	50147
10.69	46574
11.19	44869
11.69	43995
12.19	44305
12.69	44270
13.19	44059
13.69	43866
14.19	43896
14.69	43627
15.19	44058
15.69	43927
16.19	43370
16.69	43745
17.19	43432
17.69	43441
18.19	43747
18.69	43446
19.19	43342
19.69	43358
20.19	43259
20.69	43653
21.19	43385
21.69	43691
22.19	43713
22.69	43431
23.19	43094
23.69	43391
24.19	43973
24.69	43470
25.19	43528
25.69	43471
26.19	43685
26.69	43411
27.19	43700
27.69	43922
28.19	44076
28.69	43534
29.19	43987
29.69	44310
30.19	44346
30.69	46262
31.19	61751
31.69	52593
32.19	45366
32.69	44492
33.19	44120
33.69	43855
34.19	44435
34.69	43608
35.19	43708
35.69	43595
36.19	45688
36.69	44710
37.19	43481
37.69	43061
38.19	43209
38.69	42953
39.19	43190
39.69	43182
40.19	43093
40.69	42761
41.19	42596
41.69	42877
42.19	42985
42.69	42704
43.19	42727
43.69	42804
44.19	42259
44.69	43015
45.19	42463
45.69	42914
46.19	42751
46.69	42427
47.19	42791
47.69	43671
48.19	43027
48.69	42591
49.19	42683
49.69	42552
50.19	42903
50.69	42419
51.19	42960
51.69	43253
52.19	49218
52.69	47706
53.19	43023
53.69	42470
54.19	42537
54.69	42678
55.19	42311
55.69	42471
56.19	42091
56.69	42344
57.19	42288
57.69	42052
58.19	42316
58.69	42387
59.19	42449
59.69	42446
60.19	42638
60.69	42494
61.19	43320
61.69	44779
62.19	50268
62.69	47760
63.19	43784
63.69	43816
64.19	46090
64.69	59096
65.19	97555
65.69	99098
66.19	58938
66.69	46216
67.19	43573
67.69	43353
68.19	42160
68.69	40872
69.19	41187
69.69	40716
70.19	40454
70.69	40689
71.19	41096
71.69	43245
72.19	44316
72.69	42247
73.19	40950
73.69	41335
74.19	40662
74.69	40486
75.19	41298
75.69	42909
76.19	51469
76.69	76811
77.19	103935
77.69	86028
78.19	55495
78.69	45000
79.19	42250
79.69	41219
80.19	40295
80.69	39584
81.19	39298
81.69	39187
82.19	39005
82.69	38934
83.19	38573
83.69	38792
84.19	39236
84.69	40499
85.19	42502
85.69	44336
86.19	42287
86.69	39666
87.19	38384
87.69	38054
88.19	38418
88.69	38853
89.19	38462
89.69	37918
90.19	38002
90.69	38053
91.19	37569
91.69	37451
92.19	37500
92.69	37743
93.19	37675
93.69	37268
94.19	37677
94.69	37610
95.19	37550
95.69	37662
96.19	37744
96.69	37723
97.19	37374
97.69	37239
98.19	37192
98.69	37516
99.19	38240
99.69	38738
100.19	38547
100.69	37723
101.19	37433
101.69	37355
102.19	37301
102.69	37176
103.19	36823
103.69	37075
104.19	37024
104.69	37624
105.19	37641
105.69	38293
106.19	39317
106.69	42817
107.19	48929
107.69	57343
108.19	62369
108.69	60165
109.19	52328
109.69	45064
110.19	40490
110.69	38170
111.19	37538
111.69	36855
112.19	37128
112.69	36880
113.19	36926
113.69	37005
114.19	36902
114.69	36633
115.19	36342
115.69	36256
116.19	36611
116.69	36133
117.19	36212
117.69	36399
118.19	36498
118.69	36705
119.19	36258
119.69	37212
120.19	37523
120.69	38826
121.19	41545
121.69	47929
122.19	58425
122.69	72445
123.19	87495
123.69	98208
124.19	97937
124.69	87031
125.19	72576
125.69	58201
126.19	48618
126.69	43020
127.19	39746
127.69	37816
128.19	36923
128.49	36503