File: module_examples/HW/HW3/xrd_csv_files/xray_with_background.txt
x	y_obs	y_bkg
16	1163	1154.555
16.289	1085	1154.232
16.578	1089	1153.912
16.867	1119	1153.598
17.156	1070	1153.29
17.445	1079	1152.991
17.734	1080	1152.708
18.023	1137	1152.45
18.312	1117	1152.236
18.601	1076	1152.105
18.89	1138	1152.158
19.179	1175	1152.706
19.468	1090	1155.164
19.757	1105	1175.003
20.046	1410	1317.727
20.335	1127	1158.553
20.624	1120	1151.965
20.913	1130	1150.157
21.202	1142	1149.258
21.491	1168	1148.65
21.78	1211	1148.163
22.069	2488	1147.735
22.358	1185	1147.339
22.647	1200	1146.963
22.936	1185	1146.599
23.225	1177	1146.243
23.514	1154	1145.893
23.803	1140	1145.547
24.092	1136	1145.203
24.381	1147	1144.862
24.67	1171	1144.523
24.959	1152	1144.185
25.248	1180	1143.96
25.537	1179	1143.633
25.826	1177	1143.308
26.115	1159	1142.985
26.404	1173	1142.664
26.693	1213	1142.345
26.982	1149	1142.029
27.271	1148	1141.693
27.56	1167	1141.385
27.849	1147	1141.081
28.138	1140	1140.783
28.427	1184	1140.761
28.716	1098	1140.493
29.005	1152	1140.237
29.294	1147	1139.996
29.583	1108	1139.777
29.872	1150	1139.587
30.161	1143	1139.438
30.45	1202	1139.349
30.739	1167	1139.354
31.028	1185	1139.511
31.317	1137	1139.938
31.606	1202	1140.89
31.895	1126	1143.027
32.184	1167	1148.501
32.473	1130	1167.989
32.762	1311	1345.745
33.051	1402	1434.504
33.34	1215	1172.2
33.629	1141	1148.388
33.918	1101	1141.743
34.207	1148	1138.939
34.496	1176	1137.475
34.785	1141	1136.62
35.074	1207	1136.16
35.363	1115	1135.981
35.652	1079	1135.924
35.941	1146	1136.083
36.23	1303	1136.512
36.519	3116	1137.323
36.808	1209	1138.727
37.097	1145	1141.396
37.386	1160	1145.743
37.675	1157	1154.241
37.964	1099	1173.984
38.253	1297	1247.163
38.542	1731	1549.367
38.831	3959	3881.669
39.12	1329	1411.881
39.409	1247	1209.629
39.698	1186	1165.695
39.987	1197	1149.437
40.276	1118	1141.629
40.565	1279	1137.249
40.854	1130	1134.532
41.143	1173	1132.734
41.432	1118	1131.503
41.721	1195	1130.666
42.01	1202	1130.145
42.299	1375	1129.924
42.588	4511	1130.054
42.877	2978	1130.674
43.166	4922	1132.114
43.455	1258	1135.127
43.744	1171	1142.026
44.033	1199	1161.139
44.322	1316	1247.413
44.611	3065	3060.563
44.9	1456	1348.706
45.189	1461	1174.083
45.478	1193	1145.434
45.767	1170	1136.514
46.056	1152	1133.754
46.345	1119	1135.105
46.634	1120	1143.972
46.923	1163	1187.392
47.212	1621	1631.28
47.501	1229	1230.004
47.79	1139	1147.169
48.079	1101	1131.261
48.368	1064	1125.506
48.657	1141	1122.644
48.946	1195	1120.914
49.235	1325	1119.721
49.524	4233	1118.816
49.813	1900	1118.082
50.102	1187	1117.454
50.391	1135	1116.959
50.68	1095	1116.457
50.969	1119	1115.991
51.258	1086	1115.551
51.547	1075	1115.133
51.836	1103	1114.731
52.125	1205	1114.36
52.414	1794	1113.983
52.703	1672	1113.615
52.992	1161	1113.254
53.281	1118	1112.901
53.57	1107	1112.553
53.859	1163	1112.21
54.148	1122	1111.945
54.437	1098	1111.615
54.726	1105	1111.175
55.015	1147	1110.859
55.304	1147	1110.636
55.593	1171	1110.337
55.882	1101	1110.045
56.171	1135	1109.763
56.46	1131	1109.39
56.749	1056	1109.144
57.038	1079	1108.926
57.327	1061	1108.755
57.616	1087	1108.676
57.905	1119	1108.811
58.194	1144	1109.613
58.483	1090	1114.02
58.772	1283	1222.831
59.061	1142	1120.257
59.35	1090	1109.648
59.639	1072	1107.862
59.928	1071	1107.241
60.217	1108	1106.999
60.506	1079	1106.989
60.795	1106	1107.218
61.084	1092	1107.792
61.373	1079	1108.976
61.662	1098	1111.424
61.951	1041	1117.073
62.24	1112	1133.834
62.529	1258	1221.905
62.818	1648	1689.898
63.107	1251	1180.584
63.396	1152	1128.203
63.685	1140	1116.977
63.974	1070	1114.782
64.263	1027	1118.538
64.552	1138	1136.767
64.841	1302	1268.171
65.13	1708	1619.041
65.419	1200	1157.534
65.708	1503	1119.696
65.997	1150	1109.982
66.286	1077	1106.158
66.575	1095	1104.393
66.864	1089	1103.655
67.153	1122	1103.662
67.442	1089	1104.483
67.731	1098	1106.561
68.02	1122	1111.17
68.309	1141	1122.298
68.598	1158	1157.053
68.887	1368	1348.66
69.176	1726	1675.64
69.465	1175	1197.402
69.754	1197	1130.317
70.043	2015	1112.007
70.332	2233	1104.478
70.621	1254	1100.573
70.91	1174	1098.215
71.199	1096	1096.626
71.488	1108	1095.461
71.777	1043	1094.551
72.066	1100	1093.802
72.355	1145	1093.161
72.644	1772	1092.594
72.933	2311	1092.081
73.222	1166	1091.607
73.511	1094	1091.162
73.8	1079	1090.741
74.089	1087	1090.337
74.378	1081	1089.947
74.667	1071	1089.569
74.956	1078	1089.199
75.245	1074	1088.838
75.534	1067	1088.483
75.823	1040	1088.133
76.112	1038	1087.788
76.401	1074	1087.447
76.69	1093	1087.109
76.979	1143	1086.775
77.268	1495	1086.442
77.557	2592	1086.112
77.846	1517	1085.784
78.135	1318	1085.458
78.424	1142	1085.133
78.713	1119	1084.81
79.002	1044	1084.488
79.291	1075	1084.167
79.58	1061	1083.847
79.869	1025	1083.49
80.158	1072	1083.173
80.447	1053	1082.857
80.736	1088	1082.542
81.025	1057	1082.227
81.314	1062	1081.886
81.603	1110	1081.573
81.892	1155	1081.261
82.181	1220	1080.949
82.47	1219	1080.638
82.759	1093	1080.327
83.048	1136	1080.016
83.337	1120	1079.705
83.626	1090	1079.395
83.915	1096	1079.086
84.204	1110	1078.776
84.493	1027	1078.467
84.782	1130	1078.158
85.071	1054	1077.849
85.36	1074	1077.541
85.649	1055	1077.233
85.938	1093	1076.925
86.227	1057	1076.617
86.516	1069	1076.309
86.805	1044	1076.002
87.094	1081	1075.695
87.383	1077	1075.388
87.672	1084	1075.081
87.961	1250	1074.775
88.25	1643	1074.468
88.539	1271	1074.162
88.828	1190	1073.856
89.117	1144	1073.55
89.406	1080	1073.245
89.695	1066	1072.939
89.984	1075	1072.634
90.273	1065	1072.329
90.562	1034	1072.024
90.851	1041	1071.719
91.14	1061	1071.414
91.429	1094	1071.11
91.718	1097	1070.774
92.007	1073	1070.47
92.296	1114	1070.167
92.585	1105	1069.864
92.874	1338	1069.561
93.163	1698	1069.258
93.452	1433	1068.955
93.741	1137	1068.652
94.03	1109	1068.35
94.319	1185	1068.048
94.608	1160	1067.745
94.897	1111	1067.443
95.186	1050	1067.141
95.475	1060	1066.839
95.764	1046	1066.537
96.053	1057	1066.236
96.342	1033	1065.934
96.631	1072	1065.633
96.92	1092	1065.331
97.209	1064	1065.03
97.498	1071	1064.729
97.787	1092	1064.428
98.076	1067	1064.127
98.365	1061	1063.826
98.654	1081	1063.526
98.943	1130	1063.225
99.232	1088	1062.925
99.521	1060	1062.625
99.81	1085	1062.325
99.963	1193	1062.166