File: module_examples/HW/HW3/all_XRD.csv
2,224,204,263,223,223.1,2.00,256,190,245,245.1,244,2,285,205,276,281,177,2.00,319,281,252,309,238,2.00,288,233,280,323,119,2,250,230,254,257,271,2.00,305,284,265,323,348
2.44,182,172,166,156,159,2.44,151,155,192,176,171,2.44,190,176,178,206,180,2.44,220,221,193,206,149,2.44,224,215,236,223,130,2.44,184,172,181,172,164,2.44,225,204,205,234,222
2.88,126,134,147,146,141,2.88,139,133,116,135,101,2.88,145,154,185,165,143,2.88,186,179,153,152,122,2.88,208,182,183,159,116,2.88,148,137,133,140,163,2.88,179,186,149,160,139
3.32,144,120,124,101,92,3.32,119,109,108,102,87,3.32,144,109,138,112,119,3.32,154,133,119,110,107,3.32,184,150,166,114,110,3.32,145,113,124,112,141,3.32,162,185,131,117,95
3.76,130,118,98,85,75,3.76,117,80,76,71,69,3.76,129,115,121,120,94,3.76,148,117,109,100,86,3.76,155,145,125,111,92,3.76,99,112,121,109,103,3.76,149,131,112,96,92
4.2,74,107,82,81,75,4.2,83,85,64,48,47,4.2,123,93,97,94,85,4.2,138,117,101,85,78,4.2,114,117,130,93,70,4.2,88,83,101,91,86,4.2,118,148,90,83,69
4.64,70,75,75,64,65,4.64,87,63,66,40,33,4.64,113,91,96,96,74,4.64,104,102,73,82,68,4.64,106,92,99,70,70,4.64,99,96,105,63,55,4.64,94,97,66,70,55
5.08,67,92,79,64,70,5.08,81,54,47,42,38,5.08,121,96,106,92,79,5.08,83,85,77,61,54,5.08,96,71,80,69,71,5.08,88,71,52,44,56,5.08,83,90,78,61,49
5.52,111,91,79,62,59,5.52,58,65,38,34,38,5.52,164,123,117,80,67,5.52,116,89,73,46,51,5.52,103,80,96,60,51,5.52,115,88,85,46,53,5.52,84,111,69,53,56
5.96,191,168,130,61,49,5.96,81,62,48,27,27,5.96,450,331,240,99,52,5.96,187,138,93,42,55,5.96,119,117,114,62,70,5.96,252,194,158,91,62,5.96,112,117,69,61,58
6.4,242,328,287,68,64,6.4,90,97,60,28,23,6.4,892,1015,698,126,63,6.4,221,257,128,51,50,6.4,205,179,197,73,65,6.4,417,367,368,84,57,6.4,136,195,97,57,42
6.84,126,131,179,80,57,6.84,80,95,57,28,25,6.84,226,184,274,152,89,6.84,172,184,102,47,61,6.84,175,151,185,76,90,6.84,172,124,154,123,71,6.84,173,171,104,53,49
7.28,146,150,151,103,75,7.28,102,158,66,27,18,7.28,167,132,143,217,140,7.28,186,197,121,79,53,7.28,274,191,227,101,86,7.28,170,125,132,167,88,7.28,200,240,116,83,57
7.72,133,165,136,143,102,7.72,116,151,85,37,37,7.72,103,95,98,273,263,7.72,191,266,137,90,99,7.72,282,245,330,159,167,7.72,124,122,122,175,147,7.72,259,340,183,107,86
8.16,123,153,148,203,256,8.16,200,135,112,60,54,8.16,96,72,70,256,480,8.16,216,273,140,127,166,8.16,307,251,410,273,385,8.16,144,113,155,208,293,8.16,397,325,252,217,191
8.6,142,145,152,298,461,8.6,229,129,123,185,150,8.6,81,61,90,149,260,8.6,277,269,158,240,453,8.6,347,253,463,799,1541,8.6,135,104,137,259,486,8.6,463,341,394,519,650
9.04,96,96,90,133,195,9.04,127,80,71,88,138,9.04,74,54,61,96,73,9.04,185,173,133,112,95,9.04,235,147,251,355,188,9.04,85,91,97,92,110,9.04,267,204,194,328,194
9.48,63,59,85,65,49,9.48,87,65,46,40,24,9.48,62,34,49,63,50,9.48,147,113,98,51,32,9.48,164,95,159,105,69,9.48,60,57,77,69,44,9.48,143,114,93,66,41
9.92,61,58,70,56,37,9.92,76,55,30,18,19,9.92,50,54,56,51,31,9.92,138,94,88,57,28,9.92,133,80,130,55,39,9.92,62,50,60,52,39,9.92,137,104,95,38,23
10.36,85,55,62,52,28,10.36,59,53,30,27,18,10.36,54,46,65,55,47,10.36,123,116,79,44,23,10.36,132,77,125,39,35,10.36,67,48,53,63,29,10.36,119,96,86,32,17
10.8,41,55,49,51,16,10.8,68,56,28,19,11,10.8,60,51,47,61,19,10.8,122,85,83,47,13,10.8,125,54,127,33,18,10.8,57,44,60,42,13,10.8,130,81,91,26,17
11.24,61,42,49,52,9,11.24,71,63,52,27,16,11.24,60,50,73,48,15,11.24,129,108,80,71,15,11.24,130,59,132,40,16,11.24,64,63,63,50,13,11.24,148,90,101,22,14
11.68,83,72,76,64,20,11.68,70,53,35,36,11,11.68,70,65,52,59,21,11.68,126,110,76,92,14,11.68,119,78,129,28,14,11.68,63,59,62,55,12,11.68,143,96,107,26,18
12.12,80,76,63,79,8,12.12,77,55,39,48,14,12.12,128,87,68,56,7,12.12,139,122,84,120,8,12.12,122,94,126,50,17,12.12,91,62,63,72,19,12.12,122,109,92,21,19
12.56,65,83,60,60,9,12.56,46,50,27,30,10,12.56,133,157,75,61,16,12.56,91,98,59,74,9,12.56,87,62,81,37,15,12.56,74,72,59,62,14,12.56,80,66,71,13,12
13.0,25,28,35,26,14,13.0,40,28,18,22,9,13.0,49,52,37,29,18,13.0,34,54,29,39,10,13.0,34,43,39,19,17,13.0,36,29,29,33,21,13.0,42,46,34,19,11
13.44,25,19,15,15,14,13.44,21,21,16,18,6,13.44,25,30,22,15,14,13.44,22,28,21,18,17,13.44,26,24,21,19,17,13.44,13,23,17,23,7,13.44,28,34,17,15,10
13.88,14,21,17,18,10,13.88,14,23,17,15,16,13.88,22,18,17,22,13,13.88,21,25,17,15,14,13.88,28,19,17,14,14,13.88,14,19,18,21,14,13.88,23,22,19,17,18
14.32,10,14,10,8,15,14.32,9,7,11,8,12,14.32,25,13,10,15,8,14.32,18,29,17,11,23,14.32,14,17,13,14,17,14.32,11,13,13,8,7,14.32,21,21,11,15,10
14.76,14,15,12,11,11,14.76,7,20,16,14,11,14.76,16,15,13,8,8,14.76,18,25,16,5,13,14.76,12,21,22,16,17,14.76,11,9,6,5,8,14.76,15,9,18,18,15
15.2,7,10,14,4,11,15.2,10,15,13,13,11,15.2,10,18,16,10,15,15.2,13,15,11,13,21,15.2,11,20,12,22,18,15.2,12,12,14,6,12,15.2,9,15,13,11,19
15.64,7,9,8,12,14,15.64,8,12,15,14,15,15.64,9,15,9,13,13,15.64,14,18,9,14,8,15.64,13,12,11,14,20,15.64,9,8,14,6,9,15.64,13,17,18,13,15
16.08,9,18,9,9,9,16.08,17,10,17,12,12,16.08,14,7,5,5,19,16.08,14,10,13,9,19,16.08,16,10,14,10,19,16.08,8,13,11,5,7,16.08,13,13,15,15,13
16.52,11,12,6,7,6,16.52,9,10,22,21,19,16.52,19,13,12,11,10,16.52,8,17,13,12,18,16.52,13,15,12,14,16,16.52,5,10,10,8,12,16.52,17,12,17,18,14
16.96,10,8,7,2,11,16.96,12,13,18,16,15,16.96,14,14,10,10,21,16.96,11,14,5,9,18,16.96,7,19,23,12,23,16.96,11,9,12,6,17,16.96,20,20,18,22,20
17.4,23,15,12,12,12,17.4,11,17,13,12,22,17.4,11,27,10,13,22,17.4,11,19,14,14,12,17.4,18,18,20,19,33,17.4,23,10,10,7,17,17.4,18,17,13,17,23
17.84,15,14,13,16,22,17.84,24,19,21,16,15,17.84,21,25,25,22,17,17.84,25,23,13,17,16,17.84,24,21,16,26,21,17.84,10,16,23,14,18,17.84,24,18,21,25,19
18.28,18,27,17,6,6,18.28,28,17,27,23,24,18.28,44,37,34,17,26,18.28,25,33,18,16,34,18.28,23,25,13,17,19,18.28,18,26,24,11,11,18.28,14,15,27,20,32
18.72,26,39,18,11,12,18.72,20,16,25,20,21,18.72,49,51,28,14,10,18.72,31,32,14,16,25,18.72,20,15,13,25,19,18.72,21,26,18,14,10,18.72,25,10,22,15,24
19.16,13,17,13,8,18,19.16,22,14,23,33,28,19.16,22,28,19,17,17,19.16,15,19,23,21,22,19.16,19,21,23,16,28,19.16,14,15,14,7,14,19.16,19,15,13,28,23
19.6,22,17,14,11,10,19.6,17,27,24,30,15,19.6,11,23,16,16,17,19.6,17,24,25,21,22,19.6,16,22,24,21,21,19.6,17,14,14,14,14,19.6,27,17,14,21,32
20.04,18,17,14,14,18,20.04,19,31,29,28,36,20.04,19,18,21,14,18,20.04,26,33,25,22,23,20.04,24,25,16,21,23,20.04,12,22,17,12,18,20.04,23,32,20,22,24
20.48,13,21,14,14,14,20.48,29,21,31,28,22,20.48,15,20,19,15,17,20.48,27,24,19,28,35,20.48,23,25,18,25,30,20.48,21,21,15,17,13,20.48,18,29,26,26,35
20.92,21,32,30,22,24,20.92,39,26,31,28,29,20.92,31,30,24,28,24,20.92,24,25,28,23,28,20.92,25,36,24,39,26,20.92,21,26,26,29,19,20.92,26,34,35,36,22
21.36,13,17,25,13,16,21.36,31,35,43,37,30,21.36,13,21,18,19,18,21.36,28,30,13,17,28,21.36,24,20,31,22,28,21.36,13,24,13,16,15,21.36,30,19,37,26,23
21.8,12,24,14,13,18,21.8,31,35,41,38,25,21.8,25,32,12,20,19,21.8,36,36,31,25,22,21.8,35,38,25,34,35,21.8,18,27,15,15,25,21.8,32,37,36,23,35
22.24,17,28,26,16,28,22.24,30,38,40,32,29,22.24,14,26,15,18,29,22.24,27,44,22,27,23,22.24,40,41,35,24,27,22.24,23,19,19,10,18,22.24,27,33,26,32,39
22.68,23,31,26,13,11,22.68,32,37,27,24,34,22.68,28,24,19,26,18,22.68,41,45,37,31,23,22.68,31,39,28,32,21,22.68,19,37,15,12,18,22.68,52,29,30,40,37
23.12,21,30,23,23,19,23.12,33,43,44,29,32,23.12,26,34,21,29,24,23.12,47,47,34,28,39,23.12,40,49,41,40,36,23.12,23,32,32,20,18,23.12,42,44,43,28,42
23.56,41,39,38,23,30,23.56,49,57,59,39,28,23.56,46,55,37,37,28,23.56,67,83,39,32,27,23.56,54,67,61,41,30,23.56,30,36,33,21,22,23.56,49,61,60,36,40
24.0,42,51,41,38,16,24.0,40,62,40,43,30,24.0,58,71,39,26,34,24.0,77,104,42,33,36,24.0,51,76,58,39,40,24.0,51,34,31,35,21,24.0,66,79,54,44,31
24.44,46,71,49,53,25,24.44,71,77,45,36,40,24.44,68,66,50,56,34,24.44,102,103,49,67,25,24.44,66,97,77,53,48,24.44,37,65,55,50,28,24.44,63,85,62,45,42
24.88,96,90,53,58,16,24.88,85,97,45,56,43,24.88,191,132,81,74,59,24.88,170,130,55,83,50,24.88,102,108,91,70,62,24.88,118,73,71,88,41,24.88,113,108,84,53,35
25.32,77,111,83,45,41,25.32,113,86,43,48,41,25.32,168,199,88,75,60,25.32,166,168,66,90,59,25.32,121,113,115,89,91,25.32,84,91,80,78,47,25.32,116,96,77,83,68
25.76,74,88,71,62,46,25.76,113,126,48,44,54,25.76,98,146,100,88,94,25.76,185,140,72,66,48,25.76,130,121,141,90,72,25.76,83,72,82,71,52,25.76,127,139,74,52,59
26.2,88,107,84,81,57,26.2,171,146,49,56,51,26.2,65,67,81,88,154,26.2,200,172,93,93,76,26.2,192,158,182,150,180,26.2,69,62,87,77,89,26.2,198,213,125,103,93
26.64,131,150,132,180,213,26.64,156,112,66,90,74,26.64,95,84,73,139,133,26.64,167,159,101,132,199,26.64,157,144,240,404,578,26.64,115,120,135,173,258,26.64,178,135,193,312,351
27.08,52,53,35,60,89,27.08,62,55,45,49,56,27.08,48,32,34,46,90,27.08,97,57,64,45,80,27.08,67,51,71,114,139,27.08,37,52,60,59,85,27.08,83,68,54,102,94
27.52,50,48,36,40,61,27.52,42,44,44,42,49,27.52,47,46,54,40,64,27.52,53,42,48,43,63,27.52,57,47,54,56,67,27.52,35,44,45,47,51,27.52,64,55,56,46,62
27.96,45,40,35,40,38,27.96,54,42,36,39,44,27.96,50,49,42,43,38,27.96,54,44,38,32,38,27.96,46,34,53,42,40,27.96,32,51,48,53,58,27.96,55,53,36,45,37
28.4,26,26,30,24,31,28.4,32,33,23,34,28,28.4,34,28,31,32,41,28.4,35,36,29,21,35,28.4,53,26,34,29,42,28.4,30,26,28,27,35,28.4,42,30,37,33,36
28.84,23,26,27,18,20,28.84,26,31,30,36,21,28.84,22,20,22,27,36,28.84,36,26,24,21,33,28.84,23,28,30,27,42,28.84,21,21,16,20,25,28.84,27,32,24,27,30
29.28,14,22,16,18,21,29.28,23,32,27,30,24,29.28,24,19,19,15,21,29.28,26,26,15,23,29,29.28,42,38,23,32,37,29.28,17,24,15,15,22,29.28,30,34,32,23,32
29.72,23,21,23,14,16,29.72,30,24,32,31,33,29.72,30,27,31,20,27,29.72,24,22,19,30,21,29.72,30,34,26,24,25,29.72,24,14,21,10,25,29.72,27,24,21,29,25
30.0,16,14,15,6,11,30.0,24,30,26,28,23,30.0,25,21,35,22,22,30.0,36,20,32,27,22,30.0,33,32,35,18,21,30.0,16,19,16,12,22,30.0,20,35,23,21,19