File: module_examples/HW/HW3/XRD.csv
2theta,K,K 350,K 550,MG,MG+GLY
2,250,230,254,257,271
2.12,238,194,190,216,224
2.24,224,166,187,228,222
2.36,214,152,200,179,203
2.48,192,151,161,188,192
2.6,186,150,170,169,182
2.72,156,160,157,170,153
2.84,187,150,140,154,151
2.96,159,122,130,143,147
3.08,152,131,119,139,137
3.2,146,122,124,106,134
3.32,145,113,124,112,141
3.44,154,120,119,109,120
3.56,133,118,126,109,96
3.68,123,94,102,92,101
3.8,130,94,100,75,77
3.92,112,109,102,83,90
4.04,88,83,96,82,86
4.16,98,94,85,100,81
4.28,101,74,96,79,82
4.4,105,81,85,69,84
4.52,82,77,88,98,68
4.64,99,96,105,63,55
4.76,92,88,81,52,69
4.88,95,70,74,58,76
5,95,76,68,68,78
5.12,76,79,81,69,58
5.24,98,73,71,56,83
5.36,91,83,94,49,53
5.48,103,106,76,46,63
5.6,118,113,84,55,56
5.72,169,113,116,58,57
5.84,208,151,127,60,58
5.96,252,194,158,91,62
6.08,427,246,177,61,47
6.2,512,384,224,54,67
6.32,496,424,342,75,57
6.44,319,324,325,85,59
6.56,198,228,280,82,64
6.68,168,139,246,87,69
6.8,157,145,185,104,58
6.92,162,133,172,110,61
7.04,143,115,141,124,80
7.16,131,109,115,99,76
7.28,170,125,132,167,88
7.4,134,106,150,140,100
7.52,119,105,132,146,107
7.64,119,131,155,174,128
7.76,120,113,140,172,162
7.88,142,120,135,173,221
8,129,118,132,199,234
8.12,133,120,130,211,262
8.24,150,130,153,205,307
8.36,118,118,126,206,374
8.48,128,91,126,219,431
8.6,135,104,137,259,486
8.72,137,107,136,254,536
8.84,112,85,144,209,314
8.96,104,90,102,149,172
9.08,107,61,78,106,115
9.2,75,72,77,111,81
9.32,78,57,71,70,54
9.44,79,54,68,70,56
9.56,71,55,71,63,42
9.68,67,67,70,47,46
9.8,62,51,69,48,34
9.92,62,50,60,52,39
10.04,51,43,56,40,34
10.16,62,48,48,44,25
10.28,57,50,52,43,34
10.4,59,43,59,53,34
10.52,61,47,58,45,33
10.64,81,53,63,48,20
10.76,57,45,53,44,19
10.88,70,44,61,50,20
11,61,28,51,47,16
11.12,74,31,62,52,16
11.24,64,63,63,50,13
11.36,68,36,55,69,12
11.48,59,46,53,55,13
11.6,65,64,49,66,19
11.72,67,71,66,70,13
11.84,78,63,58,72,19
11.96,87,61,53,61,14
12.08,67,81,68,94,9
12.2,95,63,56,72,8
12.32,92,80,56,80,11
12.44,106,92,55,65,14
12.56,74,72,59,62,14
12.68,70,61,50,48,9
12.8,42,44,50,31,9
12.92,42,35,40,32,7
13.04,26,23,21,28,5
13.16,18,33,18,25,15
13.28,19,21,18,16,15
13.4,16,20,14,19,7
13.52,15,19,18,19,5
13.64,14,20,8,18,15
13.76,18,27,24,17,15
13.88,14,19,18,21,14
14,16,22,14,13,8
14.12,4,18,15,9,14
14.24,13,18,11,8,11
14.36,13,21,8,16,13
14.48,14,8,19,7,13
14.6,15,17,10,14,7
14.72,15,12,12,8,6
14.84,19,14,10,7,7
14.96,12,16,16,9,14
15.08,8,8,6,7,10
15.2,12,12,14,6,12
15.32,6,10,7,12,10
15.44,18,12,12,8,15
15.56,12,13,11,12,14
15.68,7,15,9,11,12
15.8,12,10,12,12,18
15.92,5,20,4,12,9
16.04,11,9,15,8,14
16.16,11,8,11,9,14
16.28,8,14,8,11,15
16.4,16,8,13,7,15
16.52,5,10,10,8,12
16.64,10,10,18,7,18
16.76,13,10,9,8,12
16.88,15,19,7,6,16
17,8,15,11,8,7
17.12,11,8,10,13,21
17.24,11,11,11,9,11
17.36,9,17,9,7,21
17.48,10,21,19,11,22
17.6,13,24,12,14,18
17.72,20,16,15,20,21
17.84,10,16,23,14,18
17.96,25,17,21,17,18
18.08,21,19,17,12,11
18.2,21,13,18,15,18
18.32,31,20,25,15,12
18.44,20,16,13,10,16
18.56,32,30,18,10,15
18.68,24,25,11,9,14
18.8,18,32,23,13,15
18.92,13,23,27,15,15
19.04,13,14,26,6,15
19.16,14,15,14,7,14
19.28,17,18,12,11,13
19.4,12,13,12,12,14
19.52,12,16,17,17,16
19.64,20,18,12,18,15
19.76,19,19,11,16,19
19.88,17,14,13,14,19
20,16,22,20,18,15
20.12,14,24,16,17,15
20.24,23,16,16,18,16
20.36,21,13,15,11,13
20.48,21,21,15,17,13
20.6,18,12,12,12,23
20.72,18,29,14,12,25
20.84,23,31,18,21,24
20.96,30,21,23,28,29
21.08,18,30,26,23,21
21.2,20,21,10,15,19
21.32,16,22,16,12,15
21.44,16,22,19,19,21
21.56,11,21,13,14,13
21.68,19,19,21,16,13
21.8,18,27,15,15,25
21.92,29,22,18,14,21
22.04,26,27,23,20,19
22.16,15,23,16,27,16
22.28,23,25,22,23,20
22.4,19,22,18,18,16
22.52,21,31,18,15,13
22.64,22,22,26,17,20
22.76,13,22,19,11,20
22.88,30,23,14,15,17
23,31,29,27,12,15
23.12,23,32,32,20,18
23.24,30,30,21,21,25
23.36,19,30,13,17,23
23.48,42,32,27,22,27
23.6,27,40,37,31,25
23.72,44,43,32,29,32
23.84,28,36,30,38,30
23.96,31,44,35,38,22
24.08,44,40,38,24,26
24.2,65,62,40,38,24
24.32,35,56,44,54,28
24.44,37,65,55,50,28
24.56,65,58,38,51,28
24.68,52,58,44,53,29
24.8,76,71,68,71,28
24.92,115,100,71,72,34
25.04,112,108,72,83,35
25.16,91,117,89,69,47
25.28,108,109,95,90,56
25.4,101,93,90,79,52
25.52,88,108,73,61,59
25.64,65,87,62,70,39
25.76,83,72,82,71,52
25.88,65,80,82,75,58
26,68,69,61,88,61
26.12,79,90,81,88,62
26.24,71,74,86,90,102
26.36,67,80,101,105,146
26.48,79,75,115,138,200
26.6,110,106,105,166,252
26.72,102,127,117,168,229
26.84,68,67,88,100,157
26.96,59,44,55,73,122
27.08,37,52,60,59,85
27.2,54,31,41,58,71
27.32,29,27,36,42,61
27.44,36,39,36,33,77
27.56,51,58,55,43,55
27.68,37,33,49,38,49
27.8,44,31,44,36,51
27.92,53,40,44,46,63
28.04,53,34,30,48,33
28.16,39,40,36,39,36
28.28,24,36,34,26,31
28.4,30,26,28,27,35
28.52,35,37,36,40,35
28.64,17,27,23,33,27
28.76,19,24,28,17,36
28.88,23,20,21,18,19
29,17,18,19,21,24
29.12,20,26,21,17,22
29.24,23,16,15,14,16
29.36,11,21,18,25,13
29.48,20,16,15,8,20
29.6,13,15,17,24,21
29.72,24,14,21,10,25
29.84,22,26,20,11,23
29.96,25,27,26,17,21
30,16,19,16,12,22