File: module_examples/HW/HW4/xrd_data/tioga1_15-35.csv
2,285,205,276,281,177
2.12,251,197,237,272,175
2.24,219,203,199,255,186
2.36,213,174,202,215,170
2.48,193,147,172,206,163
2.6,188,150,159,173,166
2.72,228,151,166,189,147
2.84,166,156,132,164,157
2.96,147,158,118,163,159
3.08,131,129,147,158,117
3.2,133,132,130,161,135
3.32,144,109,138,112,119
3.44,129,106,136,112,111
3.56,144,107,111,135,94
3.68,147,146,102,109,111
3.8,126,109,112,110,102
3.92,141,97,110,109,98
4.04,121,109,100,119,97
4.16,115,104,89,112,89
4.28,114,105,92,104,92
4.4,111,78,97,79,64
4.52,105,91,104,85,93
4.64,113,91,96,96,74
4.76,111,78,86,101,72
4.88,108,77,87,81,71
5,117,104,98,80,73
5.12,107,103,107,85,71
5.24,114,97,101,87,59
5.36,121,121,93,86,73
5.48,171,123,118,94,71
5.6,203,149,139,81,75
5.72,297,218,187,90,64
5.84,324,253,215,91,74
5.96,450,331,240,99,52
6.08,636,445,373,99,73
6.2,1050,765,441,104,78
6.32,1114,1063,670,113,89
6.44,752,812,688,121,102
6.56,411,372,505,122,65
6.68,282,270,338,151,80
6.8,216,207,269,178,88
6.92,204,189,231,170,117
7.04,149,155,232,190,108
7.16,153,149,174,211,127
7.28,167,132,143,217,140
7.4,131,134,150,231,169
7.52,129,133,124,262,191
7.64,111,107,117,290,225
7.76,111,95,105,318,245
7.88,79,88,92,323,304
8,93,82,62,299,366
8.12,82,81,89,269,452
8.24,91,62,84,210,557
8.36,83,82,89,172,546
8.48,79,62,78,131,416
8.6,81,61,90,149,260
8.72,85,66,62,120,188
8.84,85,71,50,109,132
8.96,73,75,53,113,91
9.08,83,49,53,87,94
9.2,62,52,51,73,63
9.32,63,51,49,81,64
9.44,58,53,54,81,55
9.56,65,56,46,57,58
9.68,52,54,60,61,64
9.8,71,52,51,44,44
9.92,50,54,56,51,31
10.04,45,57,62,57,26
10.16,59,46,49,51,45
10.28,60,51,56,67,41
10.4,61,64,47,63,32
10.52,70,48,60,76,21
10.64,71,48,60,63,23
10.76,74,43,52,41,17
10.88,49,51,39,49,27
11,57,49,51,51,20
11.12,87,51,57,56,21
11.24,60,50,73,48,15
11.36,80,68,72,47,22
11.48,94,60,60,62,12
11.6,106,71,60,54,15
11.72,107,78,58,50,15
11.84,78,73,71,48,15
11.96,118,91,81,59,17
12.08,86,90,61,72,15
12.2,113,92,66,67,13
12.32,162,109,70,67,13
12.44,155,129,88,78,14
12.56,133,157,75,61,16
12.68,79,129,82,56,9
12.8,59,83,55,40,8
12.92,47,51,34,36,16
13.04,49,39,24,28,20
13.16,27,30,28,29,10
13.28,28,25,27,26,18
13.4,25,29,13,23,15
13.52,16,26,24,17,16
13.64,24,16,29,14,13
13.76,19,19,28,14,11
13.88,22,18,17,22,13
14,13,16,19,19,12
14.12,30,16,22,23,9
14.24,20,22,11,15,7
14.36,17,18,17,14,11
14.48,11,23,15,10,13
14.6,17,22,17,17,15
14.72,9,18,12,9,11
14.84,12,13,7,11,14
14.96,5,17,17,8,16
15.08,21,23,12,12,13
15.2,10,18,16,10,15
15.32,14,16,19,11,17
15.44,11,15,13,11,9
15.56,11,13,20,9,20
15.68,14,14,8,10,14
15.8,12,14,15,17,12
15.92,14,13,9,3,13
16.04,13,13,12,11,10
16.16,11,13,15,6,13
16.28,16,22,11,12,10
16.4,11,15,10,14,12
16.52,19,13,12,11,10
16.64,14,18,6,7,10
16.76,12,10,8,9,13
16.88,7,18,13,14,23
17,14,11,13,9,14
17.12,15,19,10,15,15
17.24,15,17,17,8,25
17.36,17,20,16,19,11
17.48,17,24,28,12,23
17.6,26,23,17,13,17
17.72,30,25,25,19,18
17.84,21,25,25,22,17
17.96,29,23,14,12,12
18.08,27,34,26,15,9
18.2,26,34,39,13,19
18.32,44,39,41,17,13
18.44,55,42,23,15,13
18.56,63,37,31,10,16
18.68,53,39,23,8,20
18.8,49,59,24,12,18
18.92,27,55,24,17,12
19.04,23,44,26,14,13
19.16,22,28,19,17,17
19.28,16,20,17,12,21
19.4,16,26,17,13,15
19.52,27,15,20,13,21
19.64,13,22,14,20,22
19.76,17,19,22,18,25
19.88,15,29,17,16,19
20,30,14,15,17,15
20.12,16,26,23,16,19
20.24,24,25,19,11,20
20.36,21,11,14,12,19
20.48,15,20,19,15,17
20.6,16,26,19,16,27
20.72,19,20,19,25,27
20.84,19,25,24,25,27
20.96,38,30,22,24,22
21.08,26,28,26,21,35
21.2,14,16,16,15,13
21.32,16,24,14,18,20
21.44,28,24,22,17,19
21.56,17,22,15,16,24
21.68,16,26,25,9,19
21.8,25,32,12,20,19
21.92,30,25,22,23,24
22.04,30,28,24,22,19
22.16,23,25,34,19,31
22.28,22,34,16,18,19
22.4,27,36,23,18,19
22.52,22,20,22,21,21
22.64,31,38,25,23,19
22.76,25,32,19,18,21
22.88,20,42,19,24,25
23,32,37,28,19,20
23.12,26,34,21,29,24
23.24,38,38,25,27,23
23.36,36,25,24,28,30
23.48,41,53,34,31,28
23.6,58,38,39,34,27
23.72,52,50,34,34,26
23.84,52,58,39,38,14
23.96,44,50,42,39,30
24.08,51,60,47,33,33
24.2,61,56,33,36,42
24.32,77,66,36,43,29
24.44,68,66,50,56,34
24.56,83,70,74,52,43
24.68,101,72,69,64,45
24.8,143,88,74,75,33
24.92,179,110,76,70,55
25.04,192,144,82,67,49
25.16,219,192,107,74,49
25.28,145,231,104,84,63
25.4,121,190,111,61,48
25.52,99,193,114,78,66
25.64,100,138,105,84,84
25.76,98,146,100,88,94
25.88,90,96,96,85,84
26,64,84,98,89,116
26.12,62,53,74,105,137
26.24,64,51,90,90,162
26.36,49,53,72,105,202
26.48,72,49,63,100,192
26.6,76,72,79,102,157
26.72,94,95,87,116,135
26.84,58,61,47,72,116
26.96,56,48,37,47,103
27.08,48,32,34,46,90
27.2,40,42,33,45,85
27.32,36,30,30,46,65
27.44,32,32,24,37,68
27.56,64,44,41,49,55
27.68,45,37,30,37,65
27.8,38,44,32,46,61
27.92,40,49,42,46,51
28.04,44,54,58,48,31
28.16,38,42,36,46,40
28.28,23,19,30,36,34
28.4,34,28,31,32,41
28.52,49,33,20,33,47
28.64,24,30,21,33,29
28.76,29,11,18,21,23
28.88,15,25,12,13,24
29,16,20,12,25,34
29.12,24,28,21,25,16
29.24,21,19,22,25,31
29.36,32,26,26,14,26
29.48,28,22,22,27,23
29.6,26,36,17,28,18
29.72,30,27,31,20,27
29.84,28,27,24,18,17
29.96,33,37,22,18,36
30,25,21,35,22,22