File: module_examples/HW/HW4/xrd_data/tioga1_35-65.csv
2.00,319,281,252,309,238
2.12,321,268,228,273,211
2.24,250,219,213,256,209
2.36,230,210,196,231,168
2.48,248,188,212,193,173
2.60,213,178,201,204,139
2.72,214,175,159,169,140
2.84,196,164,150,161,128
2.96,182,155,149,149,120
3.08,182,146,132,145,116
3.20,186,159,114,129,128
3.32,154,133,119,110,107
3.44,172,143,132,121,85
3.56,168,162,113,108,101
3.68,132,143,109,95,69
3.80,139,137,108,93,89
3.92,154,121,107,93,82
4.04,134,115,106,87,73
4.16,114,115,104,87,74
4.28,144,110,103,91,74
4.40,127,102,97,82,52
4.52,116,122,82,69,53
4.64,104,102,73,82,68
4.76,131,88,74,87,56
4.88,107,108,74,70,60
5.00,105,110,68,59,50
5.12,111,109,73,72,44
5.24,108,109,71,47,56
5.36,115,104,79,57,51
5.48,125,105,76,65,49
5.60,118,98,81,46,52
5.72,128,106,82,57,55
5.84,146,138,74,59,39
5.96,187,138,93,42,55
6.08,204,182,102,49,51
6.20,270,195,107,54,42
6.32,263,239,111,62,56
6.44,218,227,149,50,44
6.56,176,218,116,57,48
6.68,182,176,114,63,41
6.80,180,195,111,74,46
6.92,165,171,114,74,52
7.04,190,180,139,58,67
7.16,187,195,117,73,59
7.28,186,197,121,79,53
7.40,203,224,114,84,66
7.52,197,234,132,96,72
7.64,219,235,126,111,94
7.76,200,237,144,104,95
7.88,201,255,127,116,121
8.00,234,242,153,114,152
8.12,217,247,144,162,164
8.24,263,246,149,196,235
8.36,276,256,174,167,290
8.48,266,271,158,188,415
8.60,277,269,158,240,453
8.72,282,250,165,201,422
8.84,262,254,168,204,257
8.96,225,181,138,129,154
9.08,233,156,123,114,97
9.20,178,139,119,71,66
9.32,151,109,95,89,44
9.44,149,123,88,61,40
9.56,116,106,87,68,27
9.68,156,110,103,57,29
9.80,137,91,82,51,28
9.92,138,94,88,57,28
10.04,110,97,85,56,17
10.16,118,79,90,53,25
10.28,143,95,91,45,18
10.40,113,91,62,49,17
10.52,128,81,64,39,18
10.64,106,69,83,43,18
10.76,127,84,80,44,23
10.88,116,87,84,52,14
11.00,138,99,70,55,11
11.12,123,99,58,50,16
11.24,129,108,80,71,15
11.36,137,99,71,79,12
11.48,149,112,78,78,8
11.60,159,106,83,89,7
11.72,124,108,70,101,9
11.84,143,114,94,118,9
11.96,156,109,75,91,8
12.08,130,116,70,126,15
12.20,131,106,56,124,7
12.32,134,110,68,101,17
12.44,98,112,52,94,12
12.56,91,98,59,74,9
12.68,74,85,46,57,13
12.80,66,82,35,44,16
12.92,46,60,30,36,8
13.04,43,66,19,34,7
13.16,48,38,27,30,11
13.28,35,32,21,28,7
13.40,34,46,17,22,14
13.52,28,27,12,21,16
13.64,27,29,17,22,16
13.76,25,35,13,11,11
13.88,21,25,17,15,14
14.00,21,27,11,11,10
14.12,15,24,16,19,12
14.24,20,27,9,11,18
14.36,17,26,16,15,24
14.48,15,26,15,14,6
14.60,17,16,9,11,9
14.72,13,26,10,3,10
14.84,13,18,10,10,25
14.96,17,14,18,12,13
15.08,16,18,6,6,15
15.20,13,15,11,13,21
15.32,24,17,16,10,13
15.44,10,10,7,12,22
15.56,11,22,15,4,15
15.68,10,19,15,10,17
15.80,11,10,8,7,14
15.92,11,9,5,16,8
16.04,12,11,12,8,14
16.16,13,9,14,14,13
16.28,9,19,6,13,20
16.40,10,10,12,7,13
16.52,8,17,13,12,18
16.64,9,16,18,6,20
16.76,14,13,16,12,23
16.88,19,14,13,13,20
17.00,17,15,17,9,16
17.12,15,19,12,19,19
17.24,11,23,16,7,18
17.36,21,16,9,13,22
17.48,18,20,14,15,22
17.60,25,26,19,14,15
17.72,19,22,13,15,16
17.84,25,23,13,17,16
17.96,36,22,18,15,16
18.08,27,29,21,17,9
18.20,35,22,17,11,21
18.32,32,22,23,17,13
18.44,39,33,20,12,18
18.56,35,31,20,17,28
18.68,36,28,21,13,27
18.80,24,34,22,9,26
18.92,28,30,17,19,25
19.04,19,23,17,15,29
19.16,15,19,23,21,22
19.28,15,18,18,17,24
19.40,15,19,20,24,21
19.52,21,24,18,20,21
19.64,15,22,25,16,25
19.76,14,19,18,19,24
19.88,23,17,25,15,18
20.00,29,24,22,21,25
20.12,21,26,21,22,33
20.24,15,26,29,15,26
20.36,29,18,20,23,27
20.48,27,24,19,28,35
20.60,15,20,24,26,24
20.72,28,25,36,31,21
20.84,19,30,28,20,39
20.96,29,30,22,31,24
21.08,39,25,32,17,25
21.20,23,17,29,24,21
21.32,30,18,21,13,32
21.44,32,42,18,22,35
21.56,31,37,25,16,31
21.68,40,30,25,29,35
21.80,36,36,31,25,22
21.92,41,37,34,22,28
22.04,37,35,31,23,36
22.16,31,32,33,18,36
22.28,34,42,30,21,30
22.40,25,42,31,31,29
22.52,31,32,30,18,34
22.64,49,32,40,26,40
22.76,33,44,27,22,33
22.88,51,53,34,33,31
23.00,38,54,44,31,31
23.12,47,47,34,28,39
23.24,56,62,29,38,28
23.36,62,68,33,42,30
23.48,50,70,43,34,18
23.60,78,83,36,31,35
23.72,59,79,41,39,32
23.84,64,85,46,32,26
23.96,69,97,39,52,43
24.08,82,92,39,53,37
24.20,103,105,38,50,35
24.32,100,102,39,64,30
24.44,102,103,49,67,25
24.56,101,130,52,72,38
24.68,134,118,63,89,40
24.80,144,128,85,91,38
24.92,163,132,56,102,44
25.04,158,148,70,86,46
25.16,161,128,67,89,50
25.28,149,127,60,89,64
25.40,173,129,73,78,53
25.52,172,149,82,75,56
25.64,163,138,62,64,42
25.76,185,140,72,66,48
25.88,164,162,72,62,58
26.00,180,178,74,66,56
26.12,204,198,89,75,62
26.24,205,210,87,80,97
26.36,217,200,95,98,113
26.48,200,199,99,128,156
26.60,211,172,101,110,206
26.72,175,141,101,97,201
26.84,153,93,70,96,153
26.96,115,77,50,58,101
27.08,97,57,64,45,80
27.20,76,59,48,47,70
27.32,63,54,49,44,67
27.44,67,50,42,41,66
27.56,53,45,35,46,44
27.68,46,48,41,28,33
27.80,57,29,37,31,42
27.92,39,39,39,30,38
28.04,45,34,39,32,31
28.16,43,45,28,31,29
28.28,42,27,23,16,35
28.40,35,36,29,21,35
28.52,47,27,27,28,36
28.64,33,26,35,26,30
28.76,35,31,29,22,23
28.88,24,24,27,22,28
29.00,39,26,24,18,26
29.12,35,24,31,17,31
29.24,26,26,18,21,26
29.36,26,32,29,20,29
29.48,31,20,13,25,31
29.60,21,21,17,26,25
29.72,24,22,19,30,21
29.84,30,27,20,20,25
29.96,20,25,23,20,19
30.00,36,20,32,27,22