File: module_examples/HW/HW4/xrd_data/tioga1_65-90.csv
2.00,288,233,280,323,119
2.12,283,243,236,264,134
2.24,236,212,262,236,123
2.36,242,212,253,246,114
2.48,222,194,245,241,113
2.60,189,182,222,194,129
2.72,206,189,220,169,112
2.84,182,153,175,175,130
2.96,180,148,192,157,97
3.08,186,166,171,144,106
3.20,177,145,157,134,103
3.32,184,150,166,114,110
3.44,178,151,157,118,95
3.56,166,128,149,109,100
3.68,145,140,143,123,94
3.80,159,122,149,90,88
3.92,141,128,125,90,72
4.04,126,111,129,87,84
4.16,131,97,128,96,74
4.28,110,84,85,102,69
4.40,113,115,99,65,77
4.52,103,86,95,83,56
4.64,106,92,99,70,70
4.76,109,97,92,65,74
4.88,95,79,96,75,61
5.00,94,79,89,74,64
5.12,88,75,74,70,77
5.24,111,87,80,75,69
5.36,89,82,76,76,66
5.48,117,85,109,68,75
5.60,100,85,101,54,74
5.72,113,106,100,69,62
5.84,122,83,102,57,63
5.96,119,117,114,62,70
6.08,169,127,139,83,66
6.20,221,160,131,74,73
6.32,233,148,180,59,73
6.44,187,153,169,56,66
6.56,168,139,188,72,75
6.68,180,146,190,68,75
6.80,170,128,188,67,73
6.92,191,157,186,70,87
7.04,204,172,199,76,85
7.16,205,165,213,71,99
7.28,274,191,227,101,86
7.40,252,216,250,94,114
7.52,300,198,269,105,114
7.64,294,257,289,113,149
7.76,331,240,309,144,203
7.88,324,243,331,189,251
8.00,319,254,363,230,302
8.12,311,232,412,287,357
8.24,330,252,426,355,521
8.36,354,228,424,448,794
8.48,328,217,424,580,1200
8.60,347,253,463,799,1541
8.72,339,231,445,872,1094
8.84,325,188,409,817,552
8.96,267,174,319,476,290
9.08,205,145,250,274,161
9.20,189,109,225,198,123
9.32,179,106,166,128,98
9.44,150,93,168,108,54
9.56,154,88,143,87,68
9.68,132,85,145,72,37
9.80,123,74,152,58,45
9.92,133,80,130,55,39
10.04,115,65,140,40,25
10.16,128,52,111,57,41
10.28,109,74,143,48,32
10.40,107,70,127,40,24
10.52,104,64,150,45,20
10.64,109,80,144,45,25
10.76,126,63,118,39,21
10.88,126,63,157,26,23
11.00,112,64,125,32,24
11.12,122,81,147,31,20
11.24,130,59,132,40,16
11.36,121,77,156,28,14
11.48,137,73,149,23,23
11.60,139,79,140,48,13
11.72,148,87,126,41,14
11.84,113,66,158,38,10
11.96,147,64,125,45,19
12.08,133,57,166,25,21
12.20,132,76,110,28,13
12.32,99,69,111,54,15
12.44,98,68,100,39,10
12.56,87,62,81,37,15
12.68,71,61,78,29,12
12.80,51,47,47,27,17
12.92,45,42,47,25,21
13.04,28,39,34,21,8
13.16,32,35,36,25,19
13.28,29,37,31,13,16
13.40,44,30,33,15,11
13.52,21,28,16,20,19
13.64,24,26,24,23,13
13.76,22,20,21,20,8
13.88,28,19,17,14,14
14.00,20,21,18,21,18
14.12,11,18,17,15,16
14.24,19,14,21,15,13
14.36,15,26,18,13,18
14.48,19,18,21,12,14
14.60,12,22,15,15,12
14.72,13,27,10,14,14
14.84,15,14,21,11,13
14.96,15,9,13,12,19
15.08,7,24,14,14,15
15.20,11,20,12,22,18
15.32,13,20,17,8,13
15.44,9,17,15,14,16
15.56,11,15,24,9,14
15.68,8,11,13,17,19
15.80,6,15,17,15,21
15.92,9,10,13,12,19
16.04,20,12,12,16,20
16.16,11,8,8,13,13
16.28,18,15,8,17,20
16.40,18,18,12,22,20
16.52,13,15,12,14,16
16.64,10,17,14,24,13
16.76,11,13,13,18,22
16.88,14,9,6,26,21
17.00,8,14,17,22,16
17.12,22,7,10,20,32
17.24,8,16,17,26,32
17.36,13,22,15,17,31
17.48,18,17,15,14,27
17.60,25,18,16,16,29
17.72,28,20,20,24,33
17.84,24,21,16,26,21
17.96,17,20,25,24,24
18.08,19,21,18,22,14
18.20,15,23,20,15,24
18.32,16,22,23,18,21
18.44,25,14,16,24,25
18.56,26,22,30,15,21
18.68,15,30,15,16,21
18.80,15,17,14,21,24
18.92,12,15,18,17,20
19.04,18,20,21,24,25
19.16,19,21,23,16,28
19.28,18,31,24,14,34
19.40,20,14,18,20,27
19.52,27,22,22,20,26
19.64,17,25,16,33,27
19.76,22,26,21,30,27
19.88,22,22,24,20,22
20.00,26,25,20,24,30
20.12,22,23,17,29,27
20.24,21,28,12,22,29
20.36,21,24,26,18,27
20.48,23,25,18,25,30
20.60,18,35,20,22,29
20.72,22,27,17,22,21
20.84,21,31,20,23,30
20.96,27,20,19,28,34
21.08,27,28,30,30,25
21.20,24,29,27,20,27
21.32,35,29,24,31,24
21.44,22,34,25,23,27
21.56,25,26,36,23,18
21.68,29,22,31,17,34
21.80,35,38,25,34,35
21.92,35,30,25,28,28
22.04,29,26,30,25,39
22.16,41,20,36,25,33
22.28,19,40,32,26,21
22.40,36,50,28,19,34
22.52,33,30,20,23,28
22.64,37,41,35,23,32
22.76,33,32,41,28,29
22.88,28,44,41,35,44
23.00,46,46,40,29,34
23.12,40,49,41,40,36
23.24,37,46,37,37,31
23.36,49,53,41,30,30
23.48,45,55,44,45,28
23.60,44,50,58,41,38
23.72,53,75,54,37,33
23.84,53,59,61,34,33
23.96,46,76,57,38,43
24.08,64,66,52,37,29
24.20,77,69,72,34,53
24.32,66,90,77,50,27
24.44,66,97,77,53,48
24.56,95,92,84,59,41
24.68,102,84,103,56,48
24.80,101,93,92,61,46
24.92,109,75,89,67,58
25.04,123,102,103,77,68
25.16,121,121,125,96,77
25.28,127,89,111,85,76
25.40,110,112,116,83,74
25.52,104,106,116,79,84
25.64,107,114,115,92,81
25.76,130,121,141,90,72
25.88,134,121,156,91,92
26.00,165,152,136,114,104
26.12,178,158,163,128,154
26.24,175,172,187,176,251
26.36,184,170,214,247,391
26.48,185,170,237,281,543
26.60,169,149,244,416,595
26.72,149,136,197,381,478
26.84,112,81,153,262,284
26.96,78,75,116,168,190
27.08,67,51,71,114,139
27.20,55,57,68,73,92
27.32,57,42,68,73,81
27.44,57,49,52,55,53
27.56,46,49,53,61,53
27.68,48,44,40,51,60
27.80,47,38,57,57,40
27.92,41,40,62,52,44
28.04,41,38,55,36,49
28.16,46,34,44,31,44
28.28,53,21,32,39,28
28.40,53,26,34,29,42
28.52,50,42,40,41,39
28.64,32,25,33,33,30
28.76,39,25,34,25,31
28.88,35,18,37,32,36
29.00,27,33,30,32,33
29.12,33,32,35,33,26
29.24,28,23,25,23,29
29.36,30,28,24,21,14
29.48,28,28,23,21,33
29.60,32,48,27,23,26
29.72,30,34,26,24,25
29.84,35,27,21,18,23
29.96,33,34,32,30,32
30.00,33,32,35,18,21