File: module_examples/HW/HW4/xrd_data/tioga1_0-8.csv
2,224,204,263,223,223
2.12,188,183,179,198,234
2.24,172,160,191,187,214
2.36,172,149,174,178,202
2.48,192,140,180,166,172
2.6,156,143,147,171,155
2.72,139,115,160,153,137
2.84,138,123,131,119,143
2.96,134,153,142,121,121
3.08,135,110,126,130,132
3.2,134,104,127,127,100
3.32,144,120,124,101,92
3.44,138,113,133,104,114
3.56,135,115,119,102,100
3.68,114,109,106,98,84
3.8,132,99,106,73,109
3.92,124,111,127,76,77
4.04,107,85,105,81,94
4.16,105,89,92,60,95
4.28,86,81,99,71,82
4.4,87,93,92,88,75
4.52,71,65,90,66,77
4.64,70,75,75,64,65
4.76,85,82,91,72,70
4.88,77,80,73,59,66
5,69,75,63,61,64
5.12,84,76,93,61,48
5.24,89,84,79,55,59
5.36,90,81,86,60,49
5.48,108,89,90,54,60
5.6,98,111,74,59,58
5.72,136,118,100,75,57
5.84,188,129,90,66,52
5.96,191,168,130,61,49
6.08,307,224,161,52,57
6.2,377,324,216,50,54
6.32,320,412,254,65,47
6.44,225,289,232,79,59
6.56,174,183,226,78,55
6.68,165,162,186,95,55
6.8,164,163,172,84,68
6.92,134,137,146,96,49
7.04,146,142,143,112,78
7.16,143,159,162,84,68
7.28,146,150,151,103,75
7.4,161,144,151,107,79
7.52,148,136,137,120,82
7.64,144,129,145,152,110
7.76,121,123,129,142,132
7.88,163,157,136,159,165
8,122,148,151,206,157
8.12,131,133,149,239,230
8.24,144,136,173,264,228
8.36,146,135,157,215,267
8.48,122,147,150,256,402
8.6,142,145,152,298,461
8.72,166,173,158,320,508
8.84,137,131,141,246,486
8.96,103,103,121,160,297
9.08,118,110,97,121,149
9.2,80,61,99,107,116
9.32,72,79,87,78,81
9.44,75,63,78,77,54
9.56,66,70,62,74,52
9.68,61,63,70,50,48
9.8,68,46,65,46,31
9.92,61,58,70,56,37
10.04,64,59,66,49,27
10.16,57,40,53,56,25
10.28,58,47,54,37,22
10.4,70,47,73,42,32
10.52,59,77,56,42,26
10.64,66,56,60,52,18
10.76,57,40,69,45,17
10.88,65,36,78,60,15
11,58,56,57,50,15
11.12,62,46,76,44,12
11.24,61,42,49,52,9
11.36,76,50,62,40,8
11.48,67,60,53,51,20
11.6,67,76,71,73,11
11.72,71,72,58,66,15
11.84,66,62,82,68,10
11.96,104,89,55,63,9
12.08,87,65,89,70,15
12.2,80,77,69,80,14
12.32,95,83,77,89,15
12.44,74,82,54,69,8
12.56,65,83,60,60,9
12.68,45,67,33,55,8
12.8,46,41,43,43,11
12.92,28,50,41,29,13
13.04,31,38,23,29,13
13.16,23,32,19,23,9
13.28,24,22,22,24,6
13.4,21,28,23,15,5
13.52,24,16,22,14,13
13.64,16,22,19,12,13
13.76,19,21,13,6,6
13.88,14,21,17,18,10
14,15,12,17,16,13
14.12,10,20,13,13,11
14.24,13,20,10,14,9
14.36,14,20,11,11,5
14.48,11,10,15,17,12
14.6,13,10,12,11,12
14.72,13,18,9,8,10
14.84,12,10,11,7,7
14.96,12,10,14,8,9
15.08,10,18,11,11,17
15.2,7,10,14,4,11
15.32,3,16,9,8,6
15.44,15,9,13,15,4
15.56,8,7,12,11,10
15.68,12,11,13,3,13
15.8,10,10,11,7,10
15.92,9,8,6,5,13
16.04,8,11,10,9,10
16.16,9,10,13,8,10
16.28,7,13,6,14,20
16.4,9,11,7,7,8
16.52,11,12,6,7,6
16.64,13,12,11,6,9
16.76,7,5,7,6,4
16.88,10,17,16,7,14
17,16,15,12,3,11
17.12,17,16,8,13,6
17.24,9,15,11,8,11
17.36,14,12,15,17,12
17.48,11,14,15,13,11
17.6,12,24,18,14,24
17.72,23,12,17,11,19
17.84,15,14,13,16,22
17.96,20,31,18,14,9
18.08,19,25,18,12,8
18.2,23,18,14,7,10
18.32,31,25,28,7,12
18.44,16,24,17,18,13
18.56,20,18,19,14,13
18.68,16,22,13,11,14
18.8,25,29,24,10,7
18.92,17,36,15,9,8
19.04,20,22,17,6,15
19.16,13,17,13,8,18
19.28,10,18,12,13,16
19.4,15,10,18,12,12
19.52,17,16,15,12,6
19.64,12,16,14,8,21
19.76,21,10,23,19,18
19.88,19,27,15,5,13
20,16,22,20,10,14
20.12,16,21,22,15,16
20.24,16,16,17,14,7
20.36,20,24,11,15,13
20.48,13,21,14,14,14
20.6,23,16,17,12,12
20.72,14,32,24,15,14
20.84,24,30,22,24,19
20.96,26,32,29,23,23
21.08,17,32,22,18,18
21.2,15,23,26,15,17
21.32,20,22,9,17,16
21.44,20,20,17,14,18
21.56,22,17,24,10,13
21.68,16,20,19,15,8
21.8,12,24,14,13,18
21.92,25,29,22,23,21
22.04,39,26,19,24,28
22.16,19,25,23,19,17
22.28,14,25,17,14,20
22.4,17,26,23,23,14
22.52,26,22,16,16,12
22.64,19,28,22,19,18
22.76,18,33,24,15,15
22.88,27,26,26,17,14
23,21,32,24,13,14
23.12,21,30,23,23,19
23.24,34,24,27,20,23
23.36,36,27,36,26,17
23.48,28,42,36,29,23
23.6,40,51,36,39,14
23.72,38,54,35,34,17
23.84,44,41,29,30,23
23.96,35,53,28,27,20
24.08,41,57,42,25,11
24.2,35,66,49,31,21
24.32,51,41,44,32,32
24.44,46,71,49,53,25
24.56,62,58,42,40,26
24.68,65,76,46,60,18
24.8,79,79,57,56,33
24.92,88,83,63,69,16
25.04,86,108,71,67,30
25.16,84,127,69,64,27
25.28,71,108,66,72,38
25.4,87,96,73,84,46
25.52,74,100,71,57,44
25.64,80,98,71,65,60
25.76,74,88,71,62,46
25.88,80,95,76,48,50
26,93,99,66,54,43
26.12,91,78,74,70,53
26.24,88,103,85,108,71
26.36,111,111,83,107,89
26.48,115,119,116,110,127
26.6,110,130,124,165,190
26.72,112,123,118,174,243
26.84,70,88,75,96,170
26.96,52,41,52,76,94
27.08,52,53,35,60,89
27.2,45,39,38,41,66
27.32,30,31,33,42,48
27.44,45,34,32,38,62
27.56,47,42,49,42,40
27.68,32,40,47,56,43
27.8,38,46,35,36,45
27.92,31,28,49,38,56
28.04,49,47,62,53,44
28.16,24,37,37,29,35
28.28,21,28,27,18,21
28.4,26,26,30,24,31
28.52,29,26,18,26,27
28.64,25,20,21,18,26
28.76,10,19,19,23,24
28.88,23,24,13,19,18
29,17,17,14,13,21
29.12,14,23,25,13,16
29.24,19,16,19,10,17
29.36,20,22,20,16,12
29.48,21,24,20,17,10
29.6,13,19,20,23,19
29.72,23,21,23,14,16
29.84,27,25,26,21,18
29.96,21,18,21,16,20
30,16,14,15,6,11